
  Data: Real and imaginary indices of refraction of H2O-ice, amorphous
  nitric acid solutions, and nitric acid hydrates.
  
  Reference: O. B. Toon, M. A. Tolbert, B. G. Koehler, A. M. Middlebrook,
  and J. Jordan, The infrared optical constants of H2O-ice, amorphous 
  acid solutions, and nitric acid hydrates, J. Geophys. Res., accepted
  for publication, 1994.

  Format: wavenumber(cm-1), real index,imaginary index
   110 lines, BETA NAT film  at 196 K
   133 lines, NAD film at 184 K
   112 lines, ALPHA NAT film at 181 k
   135 lines, NAM film at 179 K
   173 lines, water ice film at 163 K
   120 lines, A NAT film at 153 K
   113 lines, A NAD film at 153 K
   124 lines, A NAM film at 153 K
  2x,f6.1,2x,f5.3,2x,e8.2


  BETA NAT film at 196 K 
   110    2x,f6.1,2x,f5.3,2x,e8.2
   cm-1   n      k
   482.0  1.950  2.22E-01
   494.0  1.832  2.54E-01
   505.0  1.792  1.99E-01
   517.0  1.823  1.57E-01
   525.0  1.854  1.50E-01
   528.0  1.869  1.53E-01
   555.0  1.936  2.12E-01
   571.0  1.945  2.73E-01
   582.0  1.930  3.19E-01
   602.0  1.850  3.71E-01
   617.0  1.796  3.06E-01
   629.0  1.825  2.67E-01
   636.0  1.854  2.63E-01
   648.0  1.898  2.82E-01
   671.0  1.950  4.03E-01
   687.0  1.906  5.25E-01
   702.0  1.772  6.16E-01
   717.0  1.652  5.52E-01
   721.0  1.646  5.59E-01
   729.0  1.572  6.00E-01
   733.0  1.508  5.81E-01
   741.0  1.443  4.56E-01
   748.0  1.465  3.74E-01
   779.0  1.529  2.41E-01
   806.0  1.618  2.18E-01
   814.0  1.648  2.65E-01
   822.0  1.601  3.27E-01
   829.0  1.537  2.93E-01
   837.0  1.529  2.42E-01
   845.0  1.538  2.14E-01
   872.0  1.582  1.66E-01
   891.0  1.601  1.65E-01
   906.0  1.603  1.50E-01
   941.0  1.646  1.20E-01
   976.0  1.687  1.19E-01
  1034.0  1.747  1.30E-01
  1049.0  1.758  1.44E-01
  1057.0  1.761  1.41E-01
  1065.0  1.772  1.41E-01
  1111.0  1.830  1.78E-01
  1169.0  1.891  2.73E-01
  1184.0  1.897  3.18E-01
  1196.0  1.888  3.51E-01
  1219.0  1.868  3.87E-01
  1277.0  1.874  5.29E-01
  1300.0  1.851  6.55E-01
  1323.0  1.658  7.98E-01
  1354.0  1.476  6.92E-01
  1362.0  1.458  7.00E-01
  1373.0  1.390  7.10E-01
  1400.0  1.182  6.25E-01
  1415.0  1.095  4.24E-01
  1423.0  1.122  3.28E-01
  1435.0  1.196  2.42E-01
  1454.0  1.300  1.90E-01
  1469.0  1.360  1.83E-01
  1504.0  1.433  1.96E-01
  1539.0  1.462  2.12E-01
  1589.0  1.486  2.15E-01
  1608.0  1.495  2.25E-01
  1631.0  1.489  2.35E-01
  1662.0  1.485  2.32E-01
  1682.0  1.482  2.21E-01
  1701.0  1.499  2.10E-01
  1712.0  1.511  2.13E-01
  1743.0  1.529  2.41E-01
  1786.0  1.513  2.79E-01
  1828.0  1.475  2.96E-01
  1878.0  1.428  2.80E-01
  1909.0  1.408  2.57E-01
  1940.0  1.404  2.31E-01
  1979.0  1.413  2.10E-01
  2087.0  1.424  1.88E-01
  2148.0  1.424  1.84E-01
  2349.0  1.426  1.54E-01
  2480.0  1.439  1.36E-01
  2519.0  1.448  1.37E-01
  2600.0  1.452  1.47E-01
  2700.0  1.450  1.59E-01
  2750.0  1.440  1.66E-01
  2796.0  1.429  1.62E-01
  2920.0  1.416  1.41E-01
  2989.0  1.424  1.29E-01
  3047.0  1.438  1.26E-01
  3089.0  1.451  1.29E-01
  3128.0  1.464  1.44E-01
  3170.0  1.469  1.74E-01
  3201.0  1.455  2.02E-01
  3228.0  1.429  2.12E-01
  3267.0  1.411  2.08E-01
  3313.0  1.401  2.21E-01
  3363.0  1.346  2.62E-01
  3379.0  1.311  2.59E-01
  3448.0  1.224  1.61E-01
  3494.0  1.234  8.49E-02
  3533.0  1.260  4.74E-02
  3568.0  1.285  2.80E-02
  3595.0  1.303  2.06E-02
  3618.0  1.316  1.57E-02
  3626.0  1.319  1.52E-02
  3629.0  1.321  1.35E-02
  3656.0  1.333  1.25E-02
  3737.0  1.357  1.01E-02
  3853.0  1.379  9.04E-03
  3996.0  1.396  9.44E-03
  4108.0  1.405  0.00E+00
  4420.0  1.424  0.00E+00
  4891.0  1.440  0.00E+00
  5805.0  1.454  0.00E+00
  6364.0  1.460  0.00E+00

  NAD film at 184 K 
   133    2x,f6.1,2x,f5.3,2x,e8.2
   cm-1   n      k
   482.0  2.032  2.13E-01
   501.0  1.927  2.64E-01
   517.0  1.883  2.50E-01
   532.0  1.888  2.26E-01
   548.0  1.897  2.52E-01
   559.0  1.862  2.78E-01
   571.0  1.810  2.52E-01
   590.0  1.815  1.60E-01
   602.0  1.856  1.34E-01
   613.0  1.902  1.34E-01
   621.0  1.930  1.55E-01
   636.0  1.932  2.17E-01
   656.0  1.921  2.23E-01
   671.0  1.881  2.84E-01
   679.0  1.832  2.59E-01
   690.0  1.828  1.78E-01
   698.0  1.861  1.43E-01
   706.0  1.908  1.28E-01
   710.0  1.936  1.29E-01
   714.0  1.964  1.39E-01
   729.0  2.044  2.13E-01
   733.0  2.075  2.45E-01
   737.0  2.102  3.12E-01
   744.0  2.018  5.30E-01
   748.0  1.891  5.64E-01
   756.0  1.736  4.13E-01
   760.0  1.732  3.43E-01
   768.0  1.765  2.72E-01
   775.0  1.804  2.53E-01
   787.0  1.837  2.73E-01
   802.0  1.789  3.26E-01
   810.0  1.740  2.99E-01
   822.0  1.733  2.21E-01
   833.0  1.763  1.88E-01
   868.0  1.816  1.62E-01
   914.0  1.875  1.35E-01
   949.0  1.939  1.49E-01
   991.0  2.033  1.97E-01
  1003.0  2.082  2.33E-01
  1011.0  2.129  2.85E-01
  1014.0  2.151  3.34E-01
  1022.0  2.141  5.09E-01
  1026.0  2.055  6.24E-01
  1030.0  1.910  6.73E-01
  1034.0  1.772  5.98E-01
  1041.0  1.698  3.71E-01
  1045.0  1.724  2.98E-01
  1049.0  1.763  2.54E-01
  1053.0  1.799  2.33E-01
  1068.0  1.891  2.28E-01
  1099.0  1.967  2.65E-01
  1138.0  2.002  3.21E-01
  1165.0  2.024  3.46E-01
  1200.0  2.119  3.84E-01
  1219.0  2.218  4.62E-01
  1234.0  2.319  5.98E-01
  1246.0  2.388  7.93E-01
  1261.0  2.237  1.29E+00
  1269.0  1.932  1.42E+00
  1280.0  1.519  1.35E+00
  1296.0  1.238  9.99E-01
  1300.0  1.221  8.73E-01
  1315.0  1.275  6.29E-01
  1334.0  1.386  4.89E-01
  1358.0  1.499  4.11E-01
  1385.0  1.625  4.17E-01
  1408.0  1.723  4.96E-01
  1427.0  1.768  6.69E-01
  1442.0  1.655  9.17E-01
  1450.0  1.472  1.04E+00
  1454.0  1.326  1.05E+00
  1462.0  1.092  8.88E-01
  1469.0  1.034  6.62E-01
  1477.0  1.062  5.08E-01
  1489.0  1.133  3.76E-01
  1504.0  1.225  2.90E-01
  1531.0  1.334  2.32E-01
  1577.0  1.456  1.93E-01
  1601.0  1.505  1.94E-01
  1639.0  1.586  2.08E-01
  1662.0  1.635  2.59E-01
  1682.0  1.641  3.21E-01
  1705.0  1.608  3.78E-01
  1743.0  1.524  4.06E-01
  1766.0  1.485  3.86E-01
  1859.0  1.440  3.07E-01
  1921.0  1.445  2.66E-01
  2021.0  1.481  2.30E-01
  2102.0  1.502  2.43E-01
  2183.0  1.499  2.70E-01
  2225.0  1.479  2.81E-01
  2272.0  1.452  2.78E-01
  2326.0  1.430  2.52E-01
  2411.0  1.437  2.19E-01
  2476.0  1.446  2.06E-01
  2522.0  1.460  2.05E-01
  2561.0  1.465  2.18E-01
  2650.0  1.445  2.34E-01
  2750.0  1.418  2.35E-01
  2800.0  1.400  2.26E-01
  2912.0  1.380  1.95E-01
  3074.0  1.382  1.58E-01
  3120.0  1.387  1.52E-01
  3167.0  1.393  1.55E-01
  3221.0  1.391  1.74E-01
  3263.0  1.359  1.88E-01
  3321.0  1.324  1.52E-01
  3359.0  1.319  1.28E-01
  3417.0  1.329  9.64E-02
  3437.0  1.336  9.28E-02
  3456.0  1.342  9.48E-02
  3479.0  1.341  1.11E-01
  3494.0  1.317  1.14E-01
  3529.0  1.299  6.99E-02
  3541.0  1.302  5.73E-02
  3564.0  1.312  3.70E-02
  3583.0  1.324  2.59E-02
  3602.0  1.335  1.88E-02
  3629.0  1.349  1.36E-02
  3660.0  1.362  1.05E-02
  3726.0  1.381  8.43E-03
  3753.0  1.387  8.15E-03
  3784.0  1.393  7.16E-03
  3930.0  1.415  6.59E-03
  3980.0  1.420  6.45E-03
  4091.0  1.430  0.00E+00
  4219.0  1.440  0.00E+00
  4381.0  1.450  0.00E+00
  4597.0  1.460  0.00E+00
  4883.0  1.470  0.00E+00
  5276.0  1.480  0.00E+00
  5828.0  1.490  0.00E+00
  6981.0  1.500  0.00E+00

  ALPHA-NAT film at 181 K 
   112    2x,f6.1,2x,f5.3,2x,e8.2
   cm-1   n      k
   482.0  2.171  3.33E-01
   494.0  2.010  5.68E-01
   498.0  1.917  6.04E-01
   501.0  1.825  5.83E-01
   509.0  1.740  4.51E-01
   521.0  1.804  3.54E-01
   532.0  1.843  4.26E-01
   544.0  1.736  4.87E-01
   559.0  1.621  3.44E-01
   571.0  1.649  2.44E-01
   590.0  1.734  1.76E-01
   606.0  1.791  1.76E-01
   621.0  1.834  1.85E-01
   636.0  1.854  1.98E-01
   652.0  1.887  2.02E-01
   663.0  1.929  2.18E-01
   675.0  1.961  2.82E-01
   687.0  1.918  3.46E-01
   694.0  1.895  3.29E-01
   702.0  1.918  3.15E-01
   714.0  1.955  4.08E-01
   721.0  1.891  4.76E-01
   733.0  1.801  4.63E-01
   741.0  1.770  4.26E-01
   748.0  1.777  4.00E-01
   756.0  1.782  4.13E-01
   771.0  1.737  4.43E-01
   783.0  1.687  4.32E-01
   802.0  1.636  3.62E-01
   814.0  1.651  3.34E-01
   818.0  1.652  3.38E-01
   822.0  1.643  3.44E-01
   837.0  1.610  2.93E-01
   860.0  1.630  2.29E-01
   906.0  1.698  1.75E-01
   930.0  1.732  1.76E-01
   957.0  1.756  1.93E-01
   976.0  1.757  2.04E-01
  1007.0  1.767  1.95E-01
  1053.0  1.785  2.13E-01
  1061.0  1.784  2.05E-01
  1119.0  1.811  2.24E-01
  1157.0  1.825  2.20E-01
  1203.0  1.873  2.24E-01
  1242.0  1.937  2.46E-01
  1296.0  2.047  3.19E-01
  1311.0  2.112  3.58E-01
  1334.0  2.253  4.94E-01
  1346.0  2.355  6.30E-01
  1354.0  2.408  8.57E-01
  1365.0  2.202  1.15E+00
  1388.0  1.683  1.31E+00
  1419.0  1.195  9.98E-01
  1458.0  1.117  5.86E-01
  1496.0  1.193  3.53E-01
  1539.0  1.318  2.29E-01
  1581.0  1.435  1.87E-01
  1635.0  1.536  2.34E-01
  1685.0  1.560  3.01E-01
  1716.0  1.544  3.43E-01
  1759.0  1.477  3.78E-01
  1824.0  1.392  3.14E-01
  1882.0  1.375  2.46E-01
  1917.0  1.382  2.06E-01
  1959.0  1.406  1.72E-01
  2009.0  1.438  1.54E-01
  2060.0  1.463  1.49E-01
  2098.0  1.476  1.52E-01
  2148.0  1.483  1.57E-01
  2260.0  1.493  1.54E-01
  2368.0  1.505  1.54E-01
  2411.0  1.503  1.55E-01
  2445.0  1.502  1.49E-01
  2542.0  1.518  1.43E-01
  2630.0  1.535  1.52E-01
  2700.0  1.543  1.68E-01
  2769.0  1.538  1.87E-01
  2947.0  1.521  2.12E-01
  3024.0  1.518  2.20E-01
  3093.0  1.531  2.44E-01
  3143.0  1.535  2.96E-01
  3174.0  1.511  3.49E-01
  3213.0  1.422  3.95E-01
  3224.0  1.387  3.89E-01
  3267.0  1.310  3.30E-01
  3302.0  1.291  2.81E-01
  3352.0  1.284  2.30E-01
  3375.0  1.287  2.13E-01
  3394.0  1.298  2.05E-01
  3402.0  1.303  2.09E-01
  3413.0  1.307  2.26E-01
  3437.0  1.247  2.63E-01
  3460.0  1.180  1.88E-01
  3479.0  1.188  1.29E-01
  3510.0  1.217  7.50E-02
  3548.0  1.256  4.01E-02
  3583.0  1.286  2.38E-02
  3622.0  1.312  1.45E-02
  3664.0  1.335  9.95E-03
  3718.0  1.357  7.87E-03
  3834.0  1.387  5.42E-03
  3899.0  1.399  4.97E-03
  3953.0  1.408  5.01E-03
  4019.0  1.416  0.00E+00
  4254.0  1.439  0.00E+00
  4574.0  1.459  0.00E+00
  4999.0  1.475  0.00E+00
  5103.0  1.477  0.00E+00
  5373.0  1.483  0.00E+00
  5778.0  1.492  0.00E+00
  6503.0  1.500  0.00E+00
  6989.0  1.502  0.00E+00

  NAM film at 179 K 
   135    2x,f6.1,2x,f5.3,2x,e8.2
   cm-1   n      k
   482.0  1.962  4.55E-02
   490.0  1.954  5.00E-02
   501.0  1.950  6.73E-02
   517.0  1.936  7.50E-02
   536.0  1.920  6.35E-02
   567.0  1.942  1.96E-02
   575.0  1.955  2.27E-02
   598.0  1.986  1.21E-02
   606.0  2.001  9.92E-03
   609.0  2.009  7.64E-03
   613.0  2.019  7.64E-03
   621.0  2.039  1.02E-02
   629.0  2.058  1.86E-02
   633.0  2.065  2.07E-02
   644.0  2.100  2.04E-02
   652.0  2.134  2.68E-02
   660.0  2.176  3.74E-02
   663.0  2.202  4.74E-02
   667.0  2.230  6.23E-02
   679.0  2.320  1.32E-01
   683.0  2.365  1.66E-01
   687.0  2.419  2.24E-01
   690.0  2.467  3.27E-01
   702.0  2.237  7.91E-01
   706.0  2.059  7.67E-01
   714.0  1.974  5.68E-01
   717.0  2.005  5.97E-01
   721.0  1.965  7.03E-01
   729.0  1.788  7.03E-01
   737.0  1.516  7.58E-01
   741.0  1.378  5.24E-01
   744.0  1.394  3.07E-01
   748.0  1.475  1.96E-01
   752.0  1.556  1.47E-01
   760.0  1.674  1.20E-01
   764.0  1.719  1.28E-01
   771.0  1.758  1.87E-01
   775.0  1.742  2.13E-01
   779.0  1.714  2.12E-01
   787.0  1.683  1.53E-01
   795.0  1.709  9.09E-02
   798.0  1.734  6.99E-02
   802.0  1.767  5.68E-02
   806.0  1.811  6.26E-02
   810.0  1.834  1.22E-01
   814.0  1.788  1.97E-01
   818.0  1.722  1.58E-01
   822.0  1.712  8.06E-02
   825.0  1.738  4.72E-02
   829.0  1.763  3.59E-02
   841.0  1.810  2.74E-02
   864.0  1.865  2.28E-02
   887.0  1.909  2.40E-02
   910.0  1.949  3.45E-02
   933.0  1.975  5.02E-02
   953.0  1.997  5.25E-02
   964.0  2.014  5.76E-02
  1007.0  2.072  7.15E-02
  1018.0  2.097  7.08E-02
  1030.0  2.128  7.69E-02
  1057.0  2.216  1.10E-01
  1072.0  2.285  1.64E-01
  1095.0  2.332  3.16E-01
  1130.0  2.202  5.28E-01
  1153.0  2.086  4.32E-01
  1173.0  2.165  3.70E-01
  1200.0  2.322  4.28E-01
  1219.0  2.454  5.64E-01
  1230.0  2.506  7.47E-01
  1246.0  2.396  9.70E-01
  1269.0  2.320  1.18E+00
  1304.0  1.774  1.70E+00
  1311.0  1.517  1.73E+00
  1323.0  1.146  1.59E+00
  1342.0   .793  1.09E+00
  1358.0   .843  8.05E-01
  1377.0   .923  5.44E-01
  1419.0  1.107  2.69E-01
  1454.0  1.247  1.57E-01
  1489.0  1.367  1.21E-01
  1547.0  1.505  8.02E-02
  1562.0  1.546  8.00E-02
  1577.0  1.587  8.65E-02
  1612.0  1.673  1.27E-01
  1635.0  1.735  1.86E-01
  1651.0  1.772  2.73E-01
  1670.0  1.673  4.50E-01
  1674.0  1.624  4.65E-01
  1682.0  1.526  4.45E-01
  1701.0  1.443  2.78E-01
  1709.0  1.457  2.29E-01
  1728.0  1.515  1.69E-01
  1751.0  1.580  1.55E-01
  1801.0  1.641  2.01E-01
  1817.0  1.645  2.17E-01
  1847.0  1.636  2.35E-01
  1871.0  1.639  2.40E-01
  1894.0  1.636  2.54E-01
  1940.0  1.623  2.58E-01
  1975.0  1.620  2.55E-01
  2025.0  1.629  2.52E-01
  2036.0  1.634  2.53E-01
  2083.0  1.652  2.72E-01
  2125.0  1.661  3.08E-01
  2171.0  1.651  3.61E-01
  2214.0  1.600  4.20E-01
  2249.0  1.515  4.35E-01
  2279.0  1.442  3.96E-01
  2299.0  1.413  3.44E-01
  2337.0  1.453  2.61E-01
  2360.0  1.479  2.63E-01
  2387.0  1.484  2.64E-01
  2422.0  1.490  2.47E-01
  2453.0  1.517  2.43E-01
  2488.0  1.537  2.63E-01
  2519.0  1.542  2.89E-01
  2600.0  1.508  3.54E-01
  2654.0  1.431  3.79E-01
  2700.0  1.371  3.47E-01
  2769.0  1.339  2.88E-01
  2889.0  1.312  2.20E-01
  3001.0  1.303  1.51E-01
  3109.0  1.321  9.24E-02
  3232.0  1.356  4.70E-02
  3325.0  1.383  3.02E-02
  3437.0  1.410  2.01E-02
  3618.0  1.440  1.34E-02
  3714.0  1.452  1.18E-02
  3834.0  1.463  1.09E-02
  4070.0  1.480  0.00E+00
  4246.0  1.490  0.00E+00
  4459.0  1.500  0.00E+00
  4725.0  1.510  0.00E+00
  5131.0  1.520  0.00E+00
  6002.0  1.530  0.00E+00

  water ice film at 163 K 
   173    2x,f6.1,2x,f5.3,2x,e8.2
   cm-1   n      k
   482.0  1.406  6.98E-03
   490.0  1.418  8.24E-03
   505.0  1.434  8.62E-03
   521.0  1.451  8.28E-03
   528.0  1.461  1.08E-02
   540.0  1.471  2.07E-02
   548.0  1.475  2.63E-02
   559.0  1.481  3.10E-02
   598.0  1.505  4.25E-02
   636.0  1.536  6.38E-02
   675.0  1.567  1.02E-01
   714.0  1.592  1.55E-01
   752.0  1.612  2.45E-01
   791.0  1.568  3.69E-01
   810.0  1.503  4.33E-01
   829.0  1.413  4.65E-01
   841.0  1.363  4.62E-01
   868.0  1.257  4.33E-01
   906.0  1.131  3.52E-01
   930.0  1.076  2.58E-01
   945.0  1.067  1.84E-01
   984.0  1.139  6.11E-02
  1022.0  1.208  2.73E-02
  1045.0  1.239  1.95E-02
  1057.0  1.254  1.83E-02
  1099.0  1.285  3.22E-02
  1115.0  1.290  3.43E-02
  1138.0  1.296  3.49E-02
  1176.0  1.307  3.53E-02
  1215.0  1.316  3.64E-02
  1254.0  1.323  3.75E-02
  1292.0  1.330  3.88E-02
  1331.0  1.337  4.17E-02
  1369.0  1.342  4.71E-02
  1408.0  1.344  5.36E-02
  1446.0  1.343  5.98E-02
  1485.0  1.340  6.46E-02
  1523.0  1.335  6.78E-02
  1562.0  1.329  6.89E-02
  1601.0  1.323  6.90E-02
  1639.0  1.314  6.65E-02
  1678.0  1.305  5.74E-02
  1716.0  1.303  4.47E-02
  1755.0  1.306  3.40E-02
  1793.0  1.311  2.69E-02
  1832.0  1.317  2.16E-02
  1871.0  1.322  1.73E-02
  1909.0  1.328  1.38E-02
  1948.0  1.335  1.17E-02
  1986.0  1.341  1.12E-02
  2025.0  1.348  1.20E-02
  2063.0  1.354  1.40E-02
  2102.0  1.358  1.72E-02
  2141.0  1.362  2.20E-02
  2179.0  1.363  2.78E-02
  2218.0  1.361  3.24E-02
  2241.0  1.358  3.33E-02
  2256.0  1.356  3.27E-02
  2295.0  1.354  2.88E-02
  2333.0  1.355  2.40E-02
  2372.0  1.358  2.02E-02
  2411.0  1.362  1.77E-02
  2449.0  1.366  1.56E-02
  2488.0  1.371  1.37E-02
  2526.0  1.376  1.21E-02
  2565.0  1.382  1.04E-02
  2603.0  1.388  8.65E-03
  2642.0  1.396  6.85E-03
  2681.0  1.406  5.56E-03
  2719.0  1.417  5.19E-03
  2758.0  1.429  5.52E-03
  2796.0  1.444  6.41E-03
  2835.0  1.461  8.34E-03
  2873.0  1.482  1.23E-02
  2912.0  1.508  1.92E-02
  2951.0  1.539  3.04E-02
  2989.0  1.578  4.76E-02
  3028.0  1.633  7.43E-02
  3066.0  1.712  1.31E-01
  3105.0  1.801  2.91E-01
  3120.0  1.809  4.06E-01
  3143.0  1.715  5.37E-01
  3182.0  1.579  6.27E-01
  3205.0  1.505  7.25E-01
  3228.0  1.318  8.50E-01
  3259.0  1.035  6.75E-01
  3267.0  1.010  6.22E-01
  3298.0   .981  4.69E-01
  3336.0   .980  3.73E-01
  3375.0   .955  3.04E-01
  3413.0   .924  2.05E-01
  3452.0   .964  9.80E-02
  3491.0  1.023  5.04E-02
  3529.0  1.066  2.80E-02
  3568.0  1.100  1.51E-02
  3606.0  1.127  7.49E-03
  3645.0  1.148  3.64E-03
  3683.0  1.166  1.68E-03
  3722.0  1.180  7.99E-04
  3761.0  1.191  4.04E-04
  3799.0  1.201  2.21E-04
  3815.0  1.204  2.17E-04
  3838.0  1.209  2.58E-04
  3876.0  1.216  3.19E-04
  3915.0  1.222  3.16E-04
  3953.0  1.227  3.16E-04
  3992.0  1.232  2.92E-04
  4030.0  1.236  3.65E-04
  4061.0  1.239  4.03E-04
  4069.0  1.240  3.96E-04
  4108.0  1.243  3.24E-04
  4146.0  1.246  2.16E-04
  4185.0  1.249  1.81E-04
  4223.0  1.252  2.28E-04
  4250.0  1.254  2.57E-04
  4281.0  1.256  2.00E-04
  4300.0  1.257  1.39E-04
  4312.0  1.257  1.00E-04
  4493.0  1.266  1.00E-04
  4648.0  1.272  1.00E-04
  4686.0  1.274  2.48E-04
  4725.0  1.275  5.23E-04
  4763.0  1.276  8.26E-04
  4802.0  1.277  1.09E-03
  4840.0  1.278  1.26E-03
  4879.0  1.278  1.37E-03
  4918.0  1.279  1.46E-03
  4956.0  1.280  1.51E-03
  4995.0  1.280  1.49E-03
  5033.0  1.281  1.38E-03
  5072.0  1.281  1.15E-03
  5110.0  1.282  8.73E-04
  5149.0  1.283  6.26E-04
  5188.0  1.283  4.38E-04
  5226.0  1.284  2.81E-04
  5265.0  1.285  1.69E-04
  5303.0  1.286  1.00E-04
  5496.0  1.289  1.00E-04
  5650.0  1.290  1.00E-04
  5689.0  1.291  1.05E-04
  5728.0  1.291  1.30E-04
  5766.0  1.292  1.45E-04
  5805.0  1.292  1.46E-04
  5843.0  1.293  1.27E-04
  5882.0  1.293  1.35E-04
  5920.0  1.293  1.61E-04
  5959.0  1.294  1.87E-04
  5998.0  1.294  2.23E-04
  6036.0  1.294  2.75E-04
  6075.0  1.295  3.13E-04
  6113.0  1.295  3.40E-04
  6152.0  1.295  3.47E-04
  6190.0  1.296  3.53E-04
  6229.0  1.296  3.88E-04
  6268.0  1.296  4.16E-04
  6306.0  1.296  4.26E-04
  6345.0  1.297  4.53E-04
  6383.0  1.297  4.94E-04
  6422.0  1.297  5.54E-04
  6460.0  1.297  5.78E-04
  6499.0  1.297  6.14E-04
  6538.0  1.298  6.40E-04
  6576.0  1.298  6.27E-04
  6615.0  1.298  6.46E-04
  6653.0  1.298  6.88E-04
  6692.0  1.298  6.96E-04
  6730.0  1.298  6.40E-04
  6769.0  1.298  5.42E-04
  6807.0  1.299  3.82E-04
  6846.0  1.299  2.64E-04
  6885.0  1.299  2.04E-04
  6923.0  1.299  1.71E-04
  6962.0  1.300  2.09E-04

  a-NAT film at 153 K 
   120    2x,f6.1,2x,f5.3,2x,e8.2
   cm-1   n      k
   482.0  1.867  1.85E-01
   490.0  1.807  1.94E-01
   521.0  1.786  2.15E-01
   559.0  1.772  2.37E-01
   598.0  1.756  2.48E-01
   621.0  1.760  2.59E-01
   636.0  1.749  2.77E-01
   675.0  1.725  2.93E-01
   694.0  1.705  3.12E-01
   714.0  1.678  3.02E-01
   752.0  1.652  2.91E-01
   791.0  1.640  2.80E-01
   798.0  1.646  2.75E-01
   810.0  1.652  3.00E-01
   822.0  1.613  3.16E-01
   829.0  1.593  2.95E-01
   868.0  1.599  2.49E-01
   906.0  1.608  2.31E-01
   926.0  1.618  2.27E-01
   945.0  1.626  2.34E-01
   957.0  1.622  2.38E-01
   972.0  1.619  2.30E-01
   984.0  1.626  2.24E-01
   999.0  1.640  2.25E-01
  1022.0  1.656  2.57E-01
  1038.0  1.626  2.83E-01
  1049.0  1.599  2.59E-01
  1061.0  1.614  2.31E-01
  1099.0  1.645  2.47E-01
  1138.0  1.657  2.63E-01
  1176.0  1.669  2.88E-01
  1215.0  1.686  3.24E-01
  1254.0  1.706  4.11E-01
  1269.0  1.692  4.74E-01
  1292.0  1.605  5.58E-01
  1300.0  1.557  5.78E-01
  1331.0  1.394  5.01E-01
  1350.0  1.360  4.16E-01
  1369.0  1.400  3.46E-01
  1381.0  1.432  3.43E-01
  1400.0  1.458  3.84E-01
  1408.0  1.450  4.03E-01
  1431.0  1.389  4.42E-01
  1439.0  1.361  4.47E-01
  1446.0  1.326  4.42E-01
  1462.0  1.261  3.95E-01
  1485.0  1.236  2.80E-01
  1523.0  1.310  1.86E-01
  1562.0  1.373  1.66E-01
  1601.0  1.422  1.75E-01
  1639.0  1.439  2.10E-01
  1678.0  1.427  2.33E-01
  1716.0  1.412  2.45E-01
  1755.0  1.383  2.45E-01
  1793.0  1.363  2.27E-01
  1832.0  1.354  2.08E-01
  1871.0  1.351  1.90E-01
  1909.0  1.351  1.71E-01
  1948.0  1.356  1.55E-01
  1986.0  1.363  1.45E-01
  2025.0  1.370  1.39E-01
  2063.0  1.376  1.34E-01
  2102.0  1.382  1.30E-01
  2141.0  1.387  1.28E-01
  2179.0  1.391  1.29E-01
  2218.0  1.393  1.29E-01
  2256.0  1.393  1.28E-01
  2295.0  1.391  1.27E-01
  2333.0  1.390  1.24E-01
  2372.0  1.389  1.19E-01
  2411.0  1.392  1.14E-01
  2449.0  1.395  1.11E-01
  2488.0  1.400  1.07E-01
  2526.0  1.405  1.07E-01
  2565.0  1.410  1.10E-01
  2603.0  1.413  1.12E-01
  2642.0  1.414  1.16E-01
  2681.0  1.412  1.20E-01
  2719.0  1.411  1.21E-01
  2758.0  1.408  1.20E-01
  2796.0  1.409  1.19E-01
  2835.0  1.410  1.19E-01
  2873.0  1.413  1.19E-01
  2912.0  1.416  1.21E-01
  2951.0  1.420  1.24E-01
  2989.0  1.423  1.31E-01
  3028.0  1.427  1.41E-01
  3066.0  1.427  1.54E-01
  3105.0  1.421  1.70E-01
  3143.0  1.411  1.85E-01
  3182.0  1.395  1.99E-01
  3221.0  1.371  2.10E-01
  3259.0  1.347  2.11E-01
  3298.0  1.322  2.09E-01
  3336.0  1.296  2.01E-01
  3375.0  1.270  1.85E-01
  3413.0  1.249  1.62E-01
  3452.0  1.234  1.35E-01
  3491.0  1.227  1.05E-01
  3529.0  1.227  7.45E-02
  3568.0  1.235  4.54E-02
  3606.0  1.253  2.10E-02
  3645.0  1.274  8.43E-03
  3683.0  1.292  3.98E-03
  3722.0  1.305  2.46E-03
  3761.0  1.315  1.75E-03
  3799.0  1.323  1.31E-03
  3838.0  1.329  1.06E-03
  3876.0  1.335  1.02E-03
  3915.0  1.340  1.10E-03
  3953.0  1.345  1.14E-03
  3992.0  1.348  1.02E-03
  4011.0  1.350  0.00E+00
  4131.0  1.360  0.00E+00
  4285.0  1.370  0.00E+00
  4505.0  1.380  0.00E+00
  4817.0  1.390  0.00E+00
  5292.0  1.400  0.00E+00
  6098.0  1.410  0.00E+00
  7000.0  1.420  0.00E+00

  a-NAD film at 153 K 
   113    2x,f6.1,2x,f5.3,2x,e8.2
   cm-1   n      k
   482.0  1.883  1.23E-01
   490.0  1.847  1.33E-01
   517.0  1.836  1.59E-01
   540.0  1.831  1.73E-01
   586.0  1.817  1.91E-01
   602.0  1.818  1.89E-01
   613.0  1.828  1.91E-01
   621.0  1.838  2.02E-01
   636.0  1.828  2.34E-01
   644.0  1.818  2.38E-01
   663.0  1.811  2.42E-01
   683.0  1.810  2.64E-01
   698.0  1.784  2.83E-01
   714.0  1.765  2.75E-01
   737.0  1.750  2.80E-01
   752.0  1.738  2.70E-01
   760.0  1.741  2.66E-01
   771.0  1.744  2.80E-01
   779.0  1.727  2.90E-01
   787.0  1.713  2.74E-01
   795.0  1.720  2.60E-01
   802.0  1.732  2.65E-01
   814.0  1.719  2.93E-01
   822.0  1.698  2.89E-01
   837.0  1.689  2.63E-01
   868.0  1.693  2.49E-01
   899.0  1.703  2.40E-01
   914.0  1.715  2.39E-01
   926.0  1.728  2.48E-01
   937.0  1.733  2.73E-01
   949.0  1.713  2.98E-01
   957.0  1.691  2.98E-01
   972.0  1.670  2.70E-01
   995.0  1.696  2.43E-01
  1014.0  1.720  2.71E-01
  1030.0  1.696  3.09E-01
  1038.0  1.668  3.10E-01
  1049.0  1.643  2.65E-01
  1061.0  1.669  2.33E-01
  1076.0  1.698  2.38E-01
  1173.0  1.777  3.09E-01
  1219.0  1.824  4.19E-01
  1234.0  1.826  4.85E-01
  1254.0  1.789  5.95E-01
  1284.0  1.595  7.14E-01
  1311.0  1.349  6.66E-01
  1327.0  1.286  5.17E-01
  1338.0  1.297  4.35E-01
  1362.0  1.365  3.12E-01
  1385.0  1.467  3.15E-01
  1404.0  1.499  3.74E-01
  1439.0  1.420  4.65E-01
  1469.0  1.281  4.14E-01
  1485.0  1.249  3.32E-01
  1508.0  1.280  2.35E-01
  1543.0  1.358  1.79E-01
  1566.0  1.403  1.71E-01
  1589.0  1.442  1.77E-01
  1620.0  1.478  2.09E-01
  1647.0  1.487  2.51E-01
  1678.0  1.440  2.91E-01
  1697.0  1.420  2.70E-01
  1728.0  1.414  2.64E-01
  1782.0  1.384  2.48E-01
  1863.0  1.374  2.11E-01
  1921.0  1.373  1.84E-01
  1998.0  1.389  1.60E-01
  2071.0  1.405  1.51E-01
  2160.0  1.418  1.55E-01
  2222.0  1.417  1.62E-01
  2272.0  1.409  1.62E-01
  2322.0  1.403  1.55E-01
  2380.0  1.404  1.46E-01
  2511.0  1.416  1.42E-01
  2546.0  1.419  1.46E-01
  2619.0  1.413  1.55E-01
  2727.0  1.391  1.56E-01
  2831.0  1.387  1.42E-01
  2962.0  1.385  1.35E-01
  3032.0  1.386  1.35E-01
  3093.0  1.387  1.43E-01
  3178.0  1.369  1.55E-01
  3278.0  1.335  1.54E-01
  3359.0  1.305  1.37E-01
  3417.0  1.289  1.15E-01
  3498.0  1.280  7.95E-02
  3568.0  1.279  4.40E-02
  3606.0  1.291  2.10E-02
  3641.0  1.307  9.54E-03
  3649.0  1.310  9.06E-03
  3656.0  1.313  7.71E-03
  3660.0  1.315  6.34E-03
  3664.0  1.317  6.88E-03
  3683.0  1.323  5.26E-03
  3699.0  1.329  4.46E-03
  3703.0  1.330  5.48E-03
  3749.0  1.340  4.07E-03
  3791.0  1.347  3.94E-03
  3785.0  1.348  3.32E-03
  3803.0  1.350  3.28E-03
  3811.0  1.351  3.80E-03
  3872.0  1.359  3.32E-03
  3876.0  1.359  2.94E-03
  3896.0  1.361  3.14E-03
  3899.0  1.362  2.76E-03
  3950.0  1.367  2.91E-03
  3980.0  1.370  0.00E+00
  4115.0  1.380  0.00E+00
  4281.0  1.390  0.00E+00
  4505.0  1.400  0.00E+00
  4844.0  1.410  0.00E+00
  5338.0  1.420  0.00E+00
  6160.0  1.430  0.00E+00

  a-NAM film at 153 K 
   124    2x,f6.1,2x,f5.3,2x,e8.2
   cm-1   n      k
   482.0  1.775  4.89E-02
   501.0  1.767  7.80E-02
   579.0  1.762  1.63E-01
   609.0  1.729  1.95E-01
   636.0  1.723  1.98E-01
   663.0  1.680  2.29E-01
   710.0  1.633  1.80E-01
   741.0  1.667  1.50E-01
   756.0  1.716  1.63E-01
   760.0  1.735  1.81E-01
   768.0  1.742  2.71E-01
   771.0  1.699  3.33E-01
   775.0  1.623  3.48E-01
   787.0  1.549  1.81E-01
   791.0  1.574  1.53E-01
   798.0  1.620  1.45E-01
   822.0  1.661  1.78E-01
   868.0  1.657  2.19E-01
   903.0  1.685  2.47E-01
   922.0  1.694  3.47E-01
   941.0  1.566  4.59E-01
   957.0  1.401  4.35E-01
   976.0  1.294  2.42E-01
   984.0  1.313  1.66E-01
   995.0  1.369  1.01E-01
  1007.0  1.419  7.78E-02
  1030.0  1.480  6.65E-02
  1084.0  1.553  5.18E-02
  1119.0  1.596  5.17E-02
  1153.0  1.643  5.67E-02
  1196.0  1.719  7.76E-02
  1223.0  1.787  1.15E-01
  1250.0  1.881  1.91E-01
  1265.0  1.956  2.89E-01
  1280.0  2.013  4.78E-01
  1296.0  1.953  8.15E-01
  1308.0  1.581  1.08E+00
  1319.0  1.155  9.06E-01
  1331.0  1.000  5.49E-01
  1342.0  1.075  2.99E-01
  1350.0  1.161  1.99E-01
  1354.0  1.210  1.73E-01
  1369.0  1.346  1.67E-01
  1388.0  1.434  2.17E-01
  1412.0  1.390  3.24E-01
  1427.0  1.300  3.01E-01
  1439.0  1.262  2.40E-01
  1458.0  1.278  1.37E-01
  1473.0  1.321  9.63E-02
  1500.0  1.382  7.00E-02
  1531.0  1.440  6.19E-02
  1570.0  1.510  7.45E-02
  1589.0  1.554  1.02E-01
  1616.0  1.585  1.78E-01
  1635.0  1.614  2.34E-01
  1651.0  1.625  3.60E-01
  1670.0  1.444  5.36E-01
  1682.0  1.251  5.38E-01
  1689.0  1.125  4.59E-01
  1701.0  1.069  2.29E-01
  1705.0  1.091  1.70E-01
  1712.0  1.153  1.03E-01
  1720.0  1.206  7.53E-02
  1736.0  1.272  6.12E-02
  1801.0  1.363  5.38E-02
  1874.0  1.396  4.97E-02
  1952.0  1.417  4.05E-02
  1998.0  1.430  3.80E-02
  2036.0  1.438  3.92E-02
  2098.0  1.448  3.71E-02
  2137.0  1.457  3.62E-02
  2191.0  1.470  3.90E-02
  2256.0  1.481  4.85E-02
  2303.0  1.483  5.59E-02
  2322.0  1.483  5.61E-02
  2368.0  1.489  5.72E-02
  2372.0  1.490  5.77E-02
  2411.0  1.497  6.36E-02
  2480.0  1.504  8.32E-02
  2522.0  1.503  9.66E-02
  2592.0  1.491  1.25E-01
  2681.0  1.450  1.38E-01
  2704.0  1.435  1.34E-01
  2750.0  1.415  1.19E-01
  2769.0  1.407  1.05E-01
  2812.0  1.422  7.71E-02
  2827.0  1.431  7.59E-02
  2854.0  1.441  8.35E-02
  2889.0  1.439  9.51E-02
  2920.0  1.432  9.68E-02
  2962.0  1.426  9.94E-02
  3001.0  1.409  9.80E-02
  3024.0  1.403  8.30E-02
  3051.0  1.415  6.96E-02
  3086.0  1.427  7.97E-02
  3124.0  1.416  8.77E-02
  3221.0  1.402  7.27E-02
  3329.0  1.409  5.63E-02
  3363.0  1.413  5.77E-02
  3406.0  1.415  6.51E-02
  3467.0  1.401  7.53E-02
  3498.0  1.390  7.58E-02
  3548.0  1.364  6.71E-02
  3587.0  1.351  3.31E-02
  3606.0  1.358  1.70E-02
  3622.0  1.367  9.47E-03
  3637.0  1.375  5.57E-03
  3653.0  1.381  3.53E-03
  3672.0  1.388  2.31E-03
  3707.0  1.396  1.55E-03
  3757.0  1.404  1.15E-03
  3815.0  1.411  1.01E-03
  3865.0  1.416  1.21E-03
  3934.0  1.421  1.73E-03
  3938.0  1.421  1.51E-03
  3942.0  1.421  1.71E-03
  3984.0  1.424  1.39E-03
  3988.0  1.424  1.66E-03
  3992.0  1.424  1.37E-03
  3996.0  1.424  1.67E-03
  4154.0  1.430  0.00E+00
  4460.0  1.440  0.00E+00
  5049.0  1.450  0.00E+00
  6443.0  1.460  0.00E+00
